# energy, counts per hour, error
2 0.076 0.076
4 0.453 0.185
5 20255.143 39.118
6 8205.466 24.898
7 4845.360 19.133
8 4447.832 18.331
9 4934.884 19.308
10 7275.709 23.445
11 10621.158 28.327
12 14901.200 33.552
13 19436.289 38.319
14 23631.945 42.253
15 27759.910 45.795
16 33013.527 49.941
17 38777.539 54.125
18 43449.595 57.293
19 46485.452 59.261
20 49537.326 61.175
21 54076.646 63.917
22 58881.588 66.696
23 60135.065 67.402
24 57029.930 65.639
25 50584.635 61.818
26 42231.776 56.484
27 33928.099 50.628
28 26462.994 44.712
29 20514.949 39.368
30 16031.837 34.802
31 12669.616 30.938
32 10052.969 27.559
33 8171.999 24.847
34 6892.156 22.818
35 6046.785 21.373
36 5525.133 20.431
37 5297.509 20.005
38 5228.988 19.875
39 5202.169 19.824
40 5343.744 20.092
41 5508.588 20.400
42 5757.666 20.856
43 5912.160 21.134
44 6131.095 21.522
45 6265.871 21.757
46 6364.309 21.927
47 6451.642 22.077
48 6428.600 22.038
49 6393.621 21.978
50 6349.653 21.902
51 6324.345 21.858
52 6335.224 21.877
53 6386.218 21.965
54 6495.308 22.152
55 6509.586 22.176
56 6691.654 22.484
57 6833.079 22.720
58 7043.553 23.068
59 7377.924 23.609
60 7641.734 24.027
61 8010.177 24.600
62 8472.223 25.299
63 8933.060 25.978
64 9388.155 26.632
65 9863.950 27.298
66 10417.257 28.053
67 10929.919 28.735
68 11563.003 29.556
69 12118.803 30.258
70 12678.606 30.949
71 13404.235 31.822
72 14203.145 32.757
73 14990.119 33.652
74 15786.762 34.535
75 16562.555 35.373
76 17168.895 36.015
77 17662.973 36.529
78 17883.193 36.756
79 17801.300 36.672
80 17339.707 36.193
81 16561.875 35.372
82 15401.397 34.111
83 14219.312 32.775
84 12754.380 31.041
85 11254.544 29.159
86 9739.675 27.126
87 8388.290 25.174
88 7101.044 23.162
89 6079.346 21.431
90 5181.243 19.785
91 4453.725 18.343
92 3923.535 17.217
93 3512.257 16.289
94 3257.664 15.688
95 3066.228 15.220
96 2988.188 15.025
97 2935.002 14.891
98 2933.491 14.887
99 2869.050 14.722
100 2840.644 14.649
101 2808.310 14.566
102 2791.161 14.521
103 2740.544 14.389
104 2645.959 14.138
105 2605.995 14.031
106 2503.251 13.752
107 2397.410 13.458
108 2349.664 13.323
109 2224.785 12.964
110 2172.355 12.811
111 2051.178 12.448
112 2011.591 12.328
113 1971.324 12.204
114 1881.575 11.923
115 1819.928 11.726
116 1787.443 11.620
117 1766.667 11.553
118 1749.216 11.496
119 1722.321 11.407
120 1701.999 11.339
121 1700.790 11.335
122 1682.055 11.273
123 1689.458 11.298
124 1656.369 11.186
125 1660.146 11.199
126 1694.822 11.315
127 1665.359 11.217
128 1704.417 11.347
129 1730.103 11.433
130 1734.182 11.446
131 1717.713 11.392
132 1740.150 11.466
133 1740.075 11.465
134 1783.288 11.607
135 1784.421 11.611
136 1802.703 11.670
137 1827.785 11.751
138 1836.548 11.779
139 1862.537 11.862
140 1892.151 11.956
141 1893.435 11.960
142 1915.495 12.030
143 1955.308 12.154
144 1972.533 12.207
145 2003.885 12.304
146 2024.585 12.367
147 2048.156 12.439
148 2081.623 12.540
149 2137.603 12.708
150 2143.647 12.726
151 2136.017 12.703
152 2180.514 12.835
153 2177.039 12.825
154 2196.303 12.881
155 2211.564 12.926
156 2219.194 12.948
157 2209.524 12.920
158 2236.721 12.999
159 2217.381 12.943
160 2190.335 12.864
161 2205.067 12.907
162 2173.866 12.815
163 2148.482 12.740
164 2095.222 12.581
165 2094.315 12.579
166 2031.158 12.387
167 1978.501 12.226
168 1951.002 12.141
169 1912.171 12.019
170 1850.147 11.823
171 1828.087 11.752
172 1749.443 11.496
173 1731.311 11.437
174 1676.767 11.255
175 1633.025 11.107
176 1575.307 10.909
177 1543.124 10.797
178 1493.187 10.621
179 1441.211 10.435
180 1408.801 10.317
181 1361.509 10.142
182 1334.312 10.040
183 1319.807 9.985
184 1259.898 9.756
185 1238.292 9.672
186 1216.987 9.589
187 1189.488 9.480
188 1165.615 9.384
189 1118.927 9.194
190 1094.148 9.092
191 1070.577 8.993
192 1044.891 8.885
193 1023.209 8.792
194 1003.945 8.709
195 976.974 8.591
196 968.437 8.554
197 940.032 8.427
198 921.976 8.346
199 913.515 8.307
200 884.958 8.177
201 867.280 8.094
202 850.055 8.014
203 838.950 7.961
204 817.495 7.859
205 818.174 7.862
206 781.081 7.682
207 772.091 7.637
208 750.862 7.532
209 738.321 7.468
210 738.623 7.470
211 713.542 7.342
212 695.033 7.246
213 702.587 7.285
214 671.160 7.121
215 658.468 7.053
216 659.903 7.061
217 625.983 6.877
218 608.456 6.780
219 591.156 6.683
220 573.855 6.584
221 557.990 6.493
222 542.881 6.404
223 551.040 6.452
224 526.638 6.308
225 521.426 6.276
226 507.223 6.190
227 496.042 6.122
228 496.193 6.123
229 475.795 5.995
230 462.046 5.908
231 461.895 5.907
232 455.171 5.864
233 436.964 5.746
234 435.529 5.736
235 416.415 5.609
236 415.282 5.601
237 401.155 5.505
238 400.022 5.497
239 380.757 5.363
240 372.674 5.306
241 370.860 5.293
242 368.141 5.274
243 354.693 5.176
244 348.423 5.131
245 343.588 5.095
246 325.457 4.959
247 313.596 4.867
248 315.107 4.879
249 305.361 4.803
250 300.677 4.766
251 291.536 4.693
252 287.381 4.659
253 282.773 4.622
254 267.361 4.494
255 257.691 4.412
256 266.379 4.486
257 257.540 4.411
258 250.665 4.352
259 245.226 4.304
260 247.794 4.327
261 241.599 4.272
262 250.212 4.348
263 231.627 4.183
264 239.106 4.250
265 233.063 4.196
266 245.301 4.305
267 237.293 4.234
268 236.916 4.231
269 246.132 4.312
270 242.808 4.283
271 243.413 4.288
272 246.510 4.315
273 250.136 4.347
274 254.065 4.381
275 257.918 4.414
276 271.818 4.532
277 277.786 4.581
278 290.554 4.685
279 288.136 4.666
280 305.663 4.805
281 312.538 4.859
282 323.568 4.944
283 333.162 5.017
284 347.063 5.121
285 342.908 5.090
286 360.284 5.217
287 373.127 5.309
288 378.868 5.350
289 386.499 5.404
290 397.151 5.478
291 404.857 5.530
292 413.091 5.586
293 409.692 5.563
294 404.857 5.530
295 400.701 5.502
296 403.497 5.521
297 408.483 5.555
298 398.888 5.490
299 395.413 5.466
300 392.014 5.442
301 392.165 5.443
302 383.099 5.380
303 387.103 5.408
304 390.956 5.435
305 401.079 5.505
306 394.129 5.457
307 409.163 5.560
308 428.654 5.691
309 435.982 5.739
310 451.091 5.838
311 462.499 5.911
312 486.750 6.064
313 496.117 6.122
314 510.018 6.207
315 513.871 6.231
316 532.153 6.341
317 541.370 6.395
318 543.410 6.407
319 554.515 6.472
320 560.106 6.505
321 548.245 6.436
322 526.941 6.309
323 514.400 6.234
324 511.453 6.216
325 469.147 5.953
326 475.040 5.991
327 442.026 5.779
328 417.171 5.614
329 392.769 5.447
330 371.691 5.299
331 356.280 5.188
332 334.673 5.028
333 313.596 4.867
334 292.140 4.698
335 283.830 4.631
336 264.717 4.472
337 256.784 4.404
338 248.323 4.331
339 238.124 4.241
340 236.991 4.231
341 234.800 4.212
342 229.587 4.165
343 226.943 4.141
344 225.735 4.130
345 235.933 4.222
346 242.808 4.283
347 248.248 4.331
348 246.737 4.317
349 262.753 4.455
350 265.850 4.482
351 281.186 4.609
352 285.417 4.644
353 313.822 4.869
354 328.252 4.980
355 354.013 5.172
356 366.932 5.265
357 390.427 5.431
358 417.548 5.616
359 443.310 5.787
360 474.586 5.988
361 509.338 6.203
362 544.090 6.411
363 582.996 6.637
364 619.486 6.841
365 656.579 7.043
366 689.216 7.216
367 736.281 7.458
368 766.878 7.612
369 809.033 7.818
370 838.572 7.959
371 875.439 8.132
372 896.819 8.231
373 914.648 8.313
374 936.406 8.411
375 952.724 8.484
376 946.227 8.455
377 961.412 8.522
378 954.084 8.490
379 939.352 8.424
380 912.608 8.303
381 901.201 8.251
382 851.566 8.021
383 845.674 7.993
384 789.013 7.721
385 755.621 7.555
386 720.265 7.377
387 682.794 7.182
388 624.396 6.868
389 612.535 6.803
390 560.483 6.507
391 529.207 6.323
392 487.127 6.066
393 457.664 5.880
394 425.028 5.667
395 404.328 5.527
396 378.717 5.349
397 357.035 5.194
398 345.401 5.108
399 317.675 4.899
400 300.979 4.768
401 291.309 4.691
402 279.297 4.593
403 273.405 4.545
404 265.774 4.481
405 247.794 4.327
406 237.595 4.237
407 223.997 4.114
408 219.766 4.075
409 214.176 4.022
410 197.178 3.860
411 191.965 3.808
412 176.251 3.649
413 171.870 3.603
414 164.088 3.521
415 151.472 3.383
416 148.601 3.351
417 137.345 3.221
418 133.567 3.177
419 128.128 3.111
420 114.227 2.938
421 110.072 2.884
422 101.233 2.765
423 98.211 2.724
424 92.923 2.650
425 90.430 2.614
426 84.839 2.532
427 78.871 2.441
428 73.432 2.355
429 71.543 2.325
430 67.992 2.266
431 69.957 2.299
432 68.974 2.283
433 63.233 2.186
434 63.762 2.195
435 61.949 2.163
436 63.082 2.183
437 63.233 2.186
438 62.855 2.179
439 58.473 2.102
440 61.420 2.154
441 59.153 2.114
442 61.646 2.158
443 56.887 2.073
444 61.873 2.162
445 58.322 2.099
446 61.420 2.154
447 57.491 2.084
448 55.603 2.050
449 57.491 2.084
450 58.927 2.110
451 52.203 1.986
452 57.567 2.085
453 57.567 2.085
454 53.185 2.004
455 51.523 1.973
456 55.527 2.048
457 53.110 2.003
458 54.167 2.023
459 49.710 1.938
460 50.314 1.950
461 48.199 1.908
462 45.177 1.847
463 46.688 1.878
464 45.177 1.847
465 42.080 1.783
466 44.271 1.829
467 39.436 1.726
468 39.964 1.738
469 37.471 1.683
470 35.885 1.647
471 33.618 1.594
472 33.618 1.594
473 31.050 1.532
474 32.712 1.572
475 28.783 1.475
476 27.952 1.453
477 28.481 1.467
478 26.517 1.415
479 25.837 1.397
480 27.650 1.445
481 23.797 1.341
482 23.117 1.322
483 21.833 1.284
484 21.531 1.275
485 24.024 1.347
486 20.851 1.255
487 22.891 1.315
488 20.549 1.246
489 21.078 1.262
490 18.509 1.182
491 20.473 1.244
492 20.247 1.237
493 18.887 1.195
494 17.754 1.158
495 19.340 1.209
496 17.602 1.153
497 18.056 1.168
498 16.469 1.115
499 16.545 1.118
500 7.932 0.774
